#----------------------------------
#filename:    180sec_2chan_5kHz_pm_4kHz_FM_4Hz_Trigger1Hz.mdat
#flipper:     0
#temperature: 4.2
#voltage:     5000
#num of bins: 1000
#----------------------------------
#
# first time stamp (ns): 43139465216000
#  last time stamp (ns): 43319462715200
# => lenth of measurement (ns): 179997499200
#  -------
# | Histo:|
#  -------
# left edge (ns) | mid point (ns) | right egde (ns) | counts 
       0.000,   500049.500,  1000099.000,          646 
 1000099.000,  1500148.500,  2000198.000,          670 
 2000198.000,  2500247.500,  3000297.000,          673 
 3000297.000,  3500346.500,  4000396.000,          706 
 4000396.000,  4500445.500,  5000495.000,          710 
 5000495.000,  5500544.500,  6000594.000,          743 
 6000594.000,  6500643.500,  7000693.000,          744 
 7000693.000,  7500742.500,  8000792.000,          774 
 8000792.000,  8500841.500,  9000891.000,          779 
 9000891.000,  9500940.500, 10000990.000,          814 
10000990.000, 10501039.500, 11001089.000,          812 
11001089.000, 11501138.500, 12001188.000,          852 
12001188.000, 12501237.500, 13001287.000,          847 
13001287.000, 13501336.500, 14001386.000,          886 
14001386.000, 14501435.500, 15001485.000,          882 
15001485.000, 15501534.500, 16001584.000,          927 
16001584.000, 16501634.000, 17001684.000,          913 
17001684.000, 17501733.000, 18001782.000,          962 
18001782.000, 18501832.000, 19001882.000,          957 
19001882.000, 19501931.000, 20001980.000,          987 
20001980.000, 20502030.000, 21002080.000,         1001 
21002080.000, 21502129.000, 22002178.000,         1016 
22002178.000, 22502228.000, 23002278.000,         1036 
23002278.000, 23502327.000, 24002376.000,         1055 
24002376.000, 24502426.000, 25002476.000,         1069 
25002476.000, 25502525.000, 26002574.000,         1090 
26002574.000, 26502624.000, 27002674.000,         1112 
27002674.000, 27502723.000, 28002772.000,         1119 
28002772.000, 28502822.000, 29002872.000,         1138 
29002872.000, 29502921.000, 30002970.000,         1158 
30002970.000, 30503020.000, 31003070.000,         1173 
31003070.000, 31503119.000, 32003168.000,         1189 
32003168.000, 32503218.000, 33003268.000,         1209 
33003268.000, 33503318.000, 34003368.000,         1224 
34003368.000, 34503416.000, 35003464.000,         1234 
35003464.000, 35503514.000, 36003564.000,         1255 
36003564.000, 36503614.000, 37003664.000,         1270 
37003664.000, 37503714.000, 38003764.000,         1288 
38003764.000, 38503812.000, 39003860.000,         1297 
39003860.000, 39503910.000, 40003960.000,         1309 
40003960.000, 40504010.000, 41004060.000,         1336 
41004060.000, 41504110.000, 42004160.000,         1341 
42004160.000, 42504208.000, 43004256.000,         1357 
43004256.000, 43504306.000, 44004356.000,         1374 
44004356.000, 44504406.000, 45004456.000,         1379 
45004456.000, 45504506.000, 46004556.000,         1395 
46004556.000, 46504604.000, 47004652.000,         1415 
47004652.000, 47504702.000, 48004752.000,         1422 
48004752.000, 48504802.000, 49004852.000,         1432 
49004852.000, 49504902.000, 50004952.000,         1451 
50004952.000, 50505000.000, 51005048.000,         1451 
51005048.000, 51505098.000, 52005148.000,         1470 
52005148.000, 52505198.000, 53005248.000,         1483 
53005248.000, 53505298.000, 54005348.000,         1486 
54005348.000, 54505396.000, 55005444.000,         1496 
55005444.000, 55505494.000, 56005544.000,         1511 
56005544.000, 56505594.000, 57005644.000,         1516 
57005644.000, 57505694.000, 58005744.000,         1529 
58005744.000, 58505792.000, 59005840.000,         1535 
59005840.000, 59505890.000, 60005940.000,         1545 
60005940.000, 60505990.000, 61006040.000,         1548 
61006040.000, 61506090.000, 62006140.000,         1558 
62006140.000, 62506188.000, 63006236.000,         1565 
63006236.000, 63506286.000, 64006336.000,         1570 
64006336.000, 64506386.000, 65006436.000,         1579 
65006436.000, 65506486.000, 66006536.000,         1582 
66006536.000, 66506584.000, 67006632.000,         1587 
67006632.000, 67506684.000, 68006736.000,         1592 
68006736.000, 68506784.000, 69006832.000,         1596 
69006832.000, 69506880.000, 70006928.000,         1601 
70006928.000, 70506980.000, 71007032.000,         1600 
71007032.000, 71507080.000, 72007128.000,         1607 
72007128.000, 72507176.000, 73007224.000,         1607 
73007224.000, 73507276.000, 74007328.000,         1611 
74007328.000, 74507376.000, 75007424.000,         1610 
75007424.000, 75507476.000, 76007528.000,         1616 
76007528.000, 76507576.000, 77007624.000,         1614 
77007624.000, 77507672.000, 78007720.000,         1612 
78007720.000, 78507772.000, 79007824.000,         1615 
79007824.000, 79507872.000, 80007920.000,         1612 
80007920.000, 80507968.000, 81008016.000,         1610 
81008016.000, 81508068.000, 82008120.000,         1609 
82008120.000, 82508168.000, 83008216.000,         1608 
83008216.000, 83508268.000, 84008320.000,         1607 
84008320.000, 84508368.000, 85008416.000,         1603 
85008416.000, 85508464.000, 86008512.000,         1598 
86008512.000, 86508564.000, 87008616.000,         1594 
87008616.000, 87508664.000, 88008712.000,         1592 
88008712.000, 88508760.000, 89008808.000,         1585 
89008808.000, 89508860.000, 90008912.000,         1581 
90008912.000, 90508960.000, 91009008.000,         1574 
91009008.000, 91509060.000, 92009112.000,         1569 
92009112.000, 92509160.000, 93009208.000,         1566 
93009208.000, 93509256.000, 94009304.000,         1553 
94009304.000, 94509356.000, 95009408.000,         1550 
95009408.000, 95509456.000, 96009504.000,         1539 
96009504.000, 96509552.000, 97009600.000,         1532 
97009600.000, 97509652.000, 98009704.000,         1524 
98009704.000, 98509752.000, 99009800.000,         1517 
99009800.000, 99509852.000, 100009904.000,         1507 
100009904.000, 100509952.000, 101010000.000,         1495 
101010000.000, 101510048.000, 102010096.000,         1483 
102010096.000, 102510148.000, 103010200.000,         1477 
103010200.000, 103510248.000, 104010296.000,         1466 
104010296.000, 104510344.000, 105010392.000,         1451 
105010392.000, 105510444.000, 106010496.000,         1447 
106010496.000, 106510544.000, 107010592.000,         1430 
107010592.000, 107510644.000, 108010696.000,         1415 
108010696.000, 108510744.000, 109010792.000,         1409 
109010792.000, 109510840.000, 110010888.000,         1393 
110010888.000, 110510940.000, 111010992.000,         1374 
111010992.000, 111511040.000, 112011088.000,         1372 
112011088.000, 112511136.000, 113011184.000,         1352 
113011184.000, 113511236.000, 114011288.000,         1337 
114011288.000, 114511336.000, 115011384.000,         1328 
115011384.000, 115511436.000, 116011488.000,         1312 
116011488.000, 116511536.000, 117011584.000,         1288 
117011584.000, 117511632.000, 118011680.000,         1283 
118011680.000, 118511732.000, 119011784.000,         1264 
119011784.000, 119511832.000, 120011880.000,         1251 
120011880.000, 120511928.000, 121011976.000,         1235 
121011976.000, 121512028.000, 122012080.000,         1215 
122012080.000, 122512128.000, 123012176.000,         1198 
123012176.000, 123512228.000, 124012280.000,         1187 
124012280.000, 124512328.000, 125012376.000,         1171 
125012376.000, 125512424.000, 126012472.000,         1152 
126012472.000, 126512524.000, 127012576.000,         1138 
127012576.000, 127512624.000, 128012672.000,         1112 
128012672.000, 128512724.000, 129012776.000,         1100 
129012776.000, 129512824.000, 130012872.000,         1084 
130012872.000, 130512920.000, 131012968.000,         1068 
131012968.000, 131513020.000, 132013072.000,         1045 
132013072.000, 132513120.000, 133013168.000,         1034 
133013168.000, 133513216.000, 134013264.000,         1015 
134013264.000, 134513312.000, 135013360.000,          994 
135013360.000, 135513416.000, 136013472.000,          977 
136013472.000, 136513520.000, 137013568.000,          966 
137013568.000, 137513616.000, 138013664.000,          935 
138013664.000, 138513712.000, 139013760.000,          927 
139013760.000, 139513808.000, 140013856.000,          905 
140013856.000, 140513912.000, 141013968.000,          888 
141013968.000, 141514016.000, 142014064.000,          872 
142014064.000, 142514112.000, 143014160.000,          849 
143014160.000, 143514208.000, 144014256.000,          839 
144014256.000, 144514304.000, 145014352.000,          811 
145014352.000, 145514400.000, 146014448.000,          805 
146014448.000, 146514504.000, 147014560.000,          770 
147014560.000, 147514608.000, 148014656.000,          774 
148014656.000, 148514704.000, 149014752.000,          724 
149014752.000, 149514800.000, 150014848.000,          751 
150014848.000, 150514896.000, 151014944.000,          690 
151014944.000, 151515000.000, 152015056.000,          715 
152015056.000, 152515104.000, 153015152.000,          661 
153015152.000, 153515200.000, 154015248.000,          674 
154015248.000, 154515296.000, 155015344.000,          636 
155015344.000, 155515392.000, 156015440.000,          632 
156015440.000, 156515496.000, 157015552.000,          611 
157015552.000, 157515600.000, 158015648.000,          593 
158015648.000, 158515696.000, 159015744.000,          576 
159015744.000, 159515792.000, 160015840.000,          563 
160015840.000, 160515888.000, 161015936.000,          546 
161015936.000, 161515984.000, 162016032.000,          530 
162016032.000, 162516088.000, 163016144.000,          513 
163016144.000, 163516192.000, 164016240.000,          503 
164016240.000, 164516288.000, 165016336.000,          479 
165016336.000, 165516384.000, 166016432.000,          475 
166016432.000, 166516480.000, 167016528.000,          455 
167016528.000, 167516584.000, 168016640.000,          441 
168016640.000, 168516688.000, 169016736.000,          431 
169016736.000, 169516784.000, 170016832.000,          418 
170016832.000, 170516880.000, 171016928.000,          405 
171016928.000, 171516976.000, 172017024.000,          390 
172017024.000, 172517080.000, 173017136.000,          377 
173017136.000, 173517184.000, 174017232.000,          363 
174017232.000, 174517280.000, 175017328.000,          356 
175017328.000, 175517376.000, 176017424.000,          342 
176017424.000, 176517472.000, 177017520.000,          330 
177017520.000, 177517568.000, 178017616.000,          321 
178017616.000, 178517672.000, 179017728.000,          310 
179017728.000, 179517776.000, 180017824.000,          300 
180017824.000, 180517872.000, 181017920.000,          297 
181017920.000, 181517968.000, 182018016.000,          282 
182018016.000, 182518064.000, 183018112.000,          268 
183018112.000, 183518168.000, 184018224.000,          268 
184018224.000, 184518272.000, 185018320.000,          254 
185018320.000, 185518368.000, 186018416.000,          253 
186018416.000, 186518464.000, 187018512.000,          239 
187018512.000, 187518560.000, 188018608.000,          235 
188018608.000, 188518664.000, 189018720.000,          234 
189018720.000, 189518768.000, 190018816.000,          216 
190018816.000, 190518864.000, 191018912.000,          224 
191018912.000, 191518960.000, 192019008.000,          211 
192019008.000, 192519056.000, 193019104.000,          209 
193019104.000, 193519152.000, 194019200.000,          206 
194019200.000, 194519256.000, 195019312.000,          194 
195019312.000, 195519360.000, 196019408.000,          202 
196019408.000, 196519456.000, 197019504.000,          193 
197019504.000, 197519552.000, 198019600.000,          189 
198019600.000, 198519648.000, 199019696.000,          192 
199019696.000, 199519752.000, 200019808.000,          186 
200019808.000, 200519856.000, 201019904.000,          186 
201019904.000, 201519952.000, 202020000.000,          187 
202020000.000, 202520048.000, 203020096.000,          188 
203020096.000, 203520144.000, 204020192.000,          186 
204020192.000, 204520248.000, 205020304.000,          189 
205020304.000, 205520352.000, 206020400.000,          188 
206020400.000, 206520448.000, 207020496.000,          195 
207020496.000, 207520544.000, 208020592.000,          185 
208020592.000, 208520640.000, 209020688.000,          198 
209020688.000, 209520736.000, 210020784.000,          195 
210020784.000, 210520840.000, 211020896.000,          201 
211020896.000, 211520944.000, 212020992.000,          212 
212020992.000, 212521040.000, 213021088.000,          202 
213021088.000, 213521136.000, 214021184.000,          218 
214021184.000, 214521232.000, 215021280.000,          216 
215021280.000, 215521336.000, 216021392.000,          227 
216021392.000, 216521440.000, 217021488.000,          237 
217021488.000, 217521536.000, 218021584.000,          231 
218021584.000, 218521632.000, 219021680.000,          247 
219021680.000, 219521728.000, 220021776.000,          248 
220021776.000, 220521832.000, 221021888.000,          262 
221021888.000, 221521936.000, 222021984.000,          272 
222021984.000, 222522032.000, 223022080.000,          268 
223022080.000, 223522128.000, 224022176.000,          290 
224022176.000, 224522224.000, 225022272.000,          293 
225022272.000, 225522320.000, 226022368.000,          305 
226022368.000, 226522424.000, 227022480.000,          314 
227022480.000, 227522528.000, 228022576.000,          324 
228022576.000, 228522624.000, 229022672.000,          336 
229022672.000, 229522720.000, 230022768.000,          343 
230022768.000, 230522816.000, 231022864.000,          359 
231022864.000, 231522920.000, 232022976.000,          369 
232022976.000, 232523024.000, 233023072.000,          381 
233023072.000, 233523120.000, 234023168.000,          395 
234023168.000, 234523216.000, 235023264.000,          409 
235023264.000, 235523312.000, 236023360.000,          420 
236023360.000, 236523416.000, 237023472.000,          435 
237023472.000, 237523520.000, 238023568.000,          448 
238023568.000, 238523616.000, 239023664.000,          458 
239023664.000, 239523712.000, 240023760.000,          479 
240023760.000, 240523808.000, 241023856.000,          490 
241023856.000, 241523904.000, 242023952.000,          502 
242023952.000, 242524008.000, 243024064.000,          524 
243024064.000, 243524112.000, 244024160.000,          534 
244024160.000, 244524208.000, 245024256.000,          551 
245024256.000, 245524304.000, 246024352.000,          564 
246024352.000, 246524400.000, 247024448.000,          584 
247024448.000, 247524504.000, 248024560.000,          598 
248024560.000, 248524608.000, 249024656.000,          623 
249024656.000, 249524704.000, 250024752.000,          623 
250024752.000, 250524800.000, 251024848.000,          648 
251024848.000, 251524896.000, 252024944.000,          667 
252024944.000, 252525000.000, 253025056.000,          678 
253025056.000, 253525104.000, 254025152.000,          703 
254025152.000, 254525200.000, 255025248.000,          713 
255025248.000, 255525296.000, 256025344.000,          742 
256025344.000, 256525392.000, 257025440.000,          744 
257025440.000, 257525496.000, 258025552.000,          777 
258025552.000, 258525600.000, 259025648.000,          778 
259025648.000, 259525696.000, 260025744.000,          815 
260025744.000, 260525792.000, 261025840.000,          812 
261025840.000, 261525888.000, 262025936.000,          853 
262025936.000, 262525984.000, 263026032.000,          847 
263026032.000, 263526088.000, 264026144.000,          889 
264026144.000, 264526192.000, 265026240.000,          881 
265026240.000, 265526288.000, 266026336.000,          926 
266026336.000, 266526384.000, 267026432.000,          914 
267026432.000, 267526480.000, 268026528.000,          964 
268026528.000, 268526576.000, 269026624.000,          956 
269026624.000, 269526672.000, 270026720.000,          985 
270026720.000, 270526768.000, 271026816.000,         1002 
271026816.000, 271526880.000, 272026944.000,         1018 
272026944.000, 272526992.000, 273027040.000,         1039 
273027040.000, 273527088.000, 274027136.000,         1053 
274027136.000, 274527184.000, 275027232.000,         1072 
275027232.000, 275527280.000, 276027328.000,         1091 
276027328.000, 276527376.000, 277027424.000,         1104 
277027424.000, 277527472.000, 278027520.000,         1124 
278027520.000, 278527568.000, 279027616.000,         1143 
279027616.000, 279527664.000, 280027712.000,         1155 
280027712.000, 280527760.000, 281027808.000,         1172 
281027808.000, 281527872.000, 282027936.000,         1193 
282027936.000, 282527984.000, 283028032.000,         1207 
283028032.000, 283528080.000, 284028128.000,         1224 
284028128.000, 284528176.000, 285028224.000,         1238 
285028224.000, 285528272.000, 286028320.000,         1254 
286028320.000, 286528368.000, 287028416.000,         1272 
287028416.000, 287528464.000, 288028512.000,         1282 
288028512.000, 288528560.000, 289028608.000,         1300 
289028608.000, 289528656.000, 290028704.000,         1321 
290028704.000, 290528752.000, 291028800.000,         1323 
291028800.000, 291528848.000, 292028896.000,         1340 
292028896.000, 292528960.000, 293029024.000,         1364 
293029024.000, 293529072.000, 294029120.000,         1367 
294029120.000, 294529168.000, 295029216.000,         1385 
295029216.000, 295529264.000, 296029312.000,         1401 
296029312.000, 296529360.000, 297029408.000,         1406 
297029408.000, 297529456.000, 298029504.000,         1420 
298029504.000, 298529552.000, 299029600.000,         1441 
299029600.000, 299529648.000, 300029696.000,         1443 
300029696.000, 300529744.000, 301029792.000,         1458 
301029792.000, 301529840.000, 302029888.000,         1471 
302029888.000, 302529936.000, 303029984.000,         1476 
303029984.000, 303530048.000, 304030112.000,         1486 
304030112.000, 304530160.000, 305030208.000,         1503 
305030208.000, 305530256.000, 306030304.000,         1508 
306030304.000, 306530352.000, 307030400.000,         1520 
307030400.000, 307530448.000, 308030496.000,         1526 
308030496.000, 308530544.000, 309030592.000,         1534 
309030592.000, 309530640.000, 310030688.000,         1543 
310030688.000, 310530736.000, 311030784.000,         1551 
311030784.000, 311530832.000, 312030880.000,         1561 
312030880.000, 312530928.000, 313030976.000,         1563 
313030976.000, 313531040.000, 314031104.000,         1571 
314031104.000, 314531152.000, 315031200.000,         1576 
315031200.000, 315531248.000, 316031296.000,         1584 
316031296.000, 316531344.000, 317031392.000,         1586 
317031392.000, 317531440.000, 318031488.000,         1594 
318031488.000, 318531536.000, 319031584.000,         1594 
319031584.000, 319531632.000, 320031680.000,         1604 
320031680.000, 320531728.000, 321031776.000,         1602 
321031776.000, 321531824.000, 322031872.000,         1605 
322031872.000, 322531920.000, 323031968.000,         1609 
323031968.000, 323532016.000, 324032064.000,         1610 
324032064.000, 324532128.000, 325032192.000,         1610 
325032192.000, 325532240.000, 326032288.000,         1612 
326032288.000, 326532336.000, 327032384.000,         1617 
327032384.000, 327532432.000, 328032480.000,         1613 
328032480.000, 328532528.000, 329032576.000,         1612 
329032576.000, 329532624.000, 330032672.000,         1615 
330032672.000, 330532720.000, 331032768.000,         1611 
331032768.000, 331532816.000, 332032864.000,         1607 
332032864.000, 332532912.000, 333032960.000,         1608 
333032960.000, 333533008.000, 334033056.000,         1605 
334033056.000, 334533104.000, 335033152.000,         1601 
335033152.000, 335533216.000, 336033280.000,         1600 
336033280.000, 336533328.000, 337033376.000,         1595 
337033376.000, 337533424.000, 338033472.000,         1589 
338033472.000, 338533520.000, 339033568.000,         1586 
339033568.000, 339533616.000, 340033664.000,         1581 
340033664.000, 340533712.000, 341033760.000,         1576 
341033760.000, 341533808.000, 342033856.000,         1569 
342033856.000, 342533904.000, 343033952.000,         1563 
343033952.000, 343534000.000, 344034048.000,         1556 
344034048.000, 344534096.000, 345034144.000,         1548 
345034144.000, 345534208.000, 346034272.000,         1541 
346034272.000, 346534320.000, 347034368.000,         1530 
347034368.000, 347534416.000, 348034464.000,         1526 
348034464.000, 348534512.000, 349034560.000,         1514 
349034560.000, 349534608.000, 350034656.000,         1504 
350034656.000, 350534704.000, 351034752.000,         1497 
351034752.000, 351534800.000, 352034848.000,         1488 
352034848.000, 352534896.000, 353034944.000,         1475 
353034944.000, 353534992.000, 354035040.000,         1461 
354035040.000, 354535088.000, 355035136.000,         1458 
355035136.000, 355535184.000, 356035232.000,         1439 
356035232.000, 356535296.000, 357035360.000,         1429 
357035360.000, 357535408.000, 358035456.000,         1420 
358035456.000, 358535504.000, 359035552.000,         1407 
359035552.000, 359535600.000, 360035648.000,         1388 
360035648.000, 360535696.000, 361035744.000,         1386 
361035744.000, 361535792.000, 362035840.000,         1364 
362035840.000, 362535888.000, 363035936.000,         1350 
363035936.000, 363535984.000, 364036032.000,         1339 
364036032.000, 364536080.000, 365036128.000,         1326 
365036128.000, 365536176.000, 366036224.000,         1307 
366036224.000, 366536272.000, 367036320.000,         1301 
367036320.000, 367536384.000, 368036448.000,         1275 
368036448.000, 368536496.000, 369036544.000,         1261 
369036544.000, 369536592.000, 370036640.000,         1250 
370036640.000, 370536688.000, 371036736.000,         1235 
371036736.000, 371536784.000, 372036832.000,         1218 
372036832.000, 372536880.000, 373036928.000,         1203 
373036928.000, 373536976.000, 374037024.000,         1180 
374037024.000, 374537072.000, 375037120.000,         1167 
375037120.000, 375537168.000, 376037216.000,         1154 
376037216.000, 376537264.000, 377037312.000,         1136 
377037312.000, 377537376.000, 378037440.000,         1117 
378037440.000, 378537488.000, 379037536.000,         1099 
379037536.000, 379537584.000, 380037632.000,         1084 
380037632.000, 380537680.000, 381037728.000,         1062 
381037728.000, 381537776.000, 382037824.000,         1050 
382037824.000, 382537872.000, 383037920.000,         1032 
383037920.000, 383537968.000, 384038016.000,         1011 
384038016.000, 384538064.000, 385038112.000,          998 
385038112.000, 385538160.000, 386038208.000,          978 
386038208.000, 386538256.000, 387038304.000,          965 
387038304.000, 387538352.000, 388038400.000,          932 
388038400.000, 388538464.000, 389038528.000,          928 
389038528.000, 389538576.000, 390038624.000,          905 
390038624.000, 390538672.000, 391038720.000,          887 
391038720.000, 391538768.000, 392038816.000,          872 
392038816.000, 392538864.000, 393038912.000,          848 
393038912.000, 393538960.000, 394039008.000,          836 
394039008.000, 394539056.000, 395039104.000,          814 
395039104.000, 395539152.000, 396039200.000,          802 
396039200.000, 396539248.000, 397039296.000,          770 
397039296.000, 397539344.000, 398039392.000,          774 
398039392.000, 398539456.000, 399039520.000,          723 
399039520.000, 399539568.000, 400039616.000,          752 
400039616.000, 400539664.000, 401039712.000,          686 
401039712.000, 401539760.000, 402039808.000,          718 
402039808.000, 402539856.000, 403039904.000,          658 
403039904.000, 403539952.000, 404040000.000,          675 
404040000.000, 404540048.000, 405040096.000,          635 
405040096.000, 405540144.000, 406040192.000,          629 
406040192.000, 406540240.000, 407040288.000,          611 
407040288.000, 407540336.000, 408040384.000,          592 
408040384.000, 408540432.000, 409040480.000,          581 
409040480.000, 409540544.000, 410040608.000,          557 
410040608.000, 410540656.000, 411040704.000,          548 
411040704.000, 411540752.000, 412040800.000,          530 
412040800.000, 412540848.000, 413040896.000,          514 
413040896.000, 413540944.000, 414040992.000,          502 
414040992.000, 414541040.000, 415041088.000,          483 
415041088.000, 415541136.000, 416041184.000,          474 
416041184.000, 416541232.000, 417041280.000,          450 
417041280.000, 417541328.000, 418041376.000,          445 
418041376.000, 418541424.000, 419041472.000,          426 
419041472.000, 419541520.000, 420041568.000,          414 
420041568.000, 420541632.000, 421041696.000,          407 
421041696.000, 421541744.000, 422041792.000,          388 
422041792.000, 422541840.000, 423041888.000,          382 
423041888.000, 423541936.000, 424041984.000,          362 
424041984.000, 424542032.000, 425042080.000,          355 
425042080.000, 425542128.000, 426042176.000,          341 
426042176.000, 426542224.000, 427042272.000,          335 
427042272.000, 427542320.000, 428042368.000,          319 
428042368.000, 428542416.000, 429042464.000,          306 
429042464.000, 429542512.000, 430042560.000,          303 
430042560.000, 430542624.000, 431042688.000,          291 
431042688.000, 431542736.000, 432042784.000,          277 
432042784.000, 432542832.000, 433042880.000,          279 
433042880.000, 433542928.000, 434042976.000,          264 
434042976.000, 434543024.000, 435043072.000,          255 
435043072.000, 435543120.000, 436043168.000,          255 
436043168.000, 436543216.000, 437043264.000,          234 
437043264.000, 437543312.000, 438043360.000,          240 
438043360.000, 438543408.000, 439043456.000,          226 
439043456.000, 439543504.000, 440043552.000,          225 
440043552.000, 440543600.000, 441043648.000,          219 
441043648.000, 441543712.000, 442043776.000,          207 
442043776.000, 442543824.000, 443043872.000,          213 
443043872.000, 443543920.000, 444043968.000,          201 
444043968.000, 444544016.000, 445044064.000,          200 
445044064.000, 445544112.000, 446044160.000,          200 
446044160.000, 446544208.000, 447044256.000,          187 
447044256.000, 447544304.000, 448044352.000,          197 
448044352.000, 448544400.000, 449044448.000,          188 
449044448.000, 449544496.000, 450044544.000,          192 
450044544.000, 450544592.000, 451044640.000,          184 
451044640.000, 451544688.000, 452044736.000,          187 
452044736.000, 452544800.000, 453044864.000,          186 
453044864.000, 453544912.000, 454044960.000,          187 
454044960.000, 454545008.000, 455045056.000,          184 
455045056.000, 455545104.000, 456045152.000,          191 
456045152.000, 456545200.000, 457045248.000,          187 
457045248.000, 457545296.000, 458045344.000,          198 
458045344.000, 458545392.000, 459045440.000,          198 
459045440.000, 459545488.000, 460045536.000,          192 
460045536.000, 460545584.000, 461045632.000,          207 
461045632.000, 461545680.000, 462045728.000,          199 
462045728.000, 462545792.000, 463045856.000,          212 
463045856.000, 463545904.000, 464045952.000,          216 
464045952.000, 464546000.000, 465046048.000,          219 
465046048.000, 465546096.000, 466046144.000,          227 
466046144.000, 466546192.000, 467046240.000,          225 
467046240.000, 467546288.000, 468046336.000,          241 
468046336.000, 468546384.000, 469046432.000,          247 
469046432.000, 469546480.000, 470046528.000,          247 
470046528.000, 470546576.000, 471046624.000,          264 
471046624.000, 471546672.000, 472046720.000,          263 
472046720.000, 472546768.000, 473046816.000,          280 
473046816.000, 473546880.000, 474046944.000,          284 
474046944.000, 474546992.000, 475047040.000,          292 
475047040.000, 475547088.000, 476047136.000,          308 
476047136.000, 476547184.000, 477047232.000,          312 
477047232.000, 477547280.000, 478047328.000,          330 
478047328.000, 478547376.000, 479047424.000,          335 
479047424.000, 479547472.000, 480047520.000,          342 
480047520.000, 480547568.000, 481047616.000,          360 
481047616.000, 481547664.000, 482047712.000,          369 
482047712.000, 482547760.000, 483047808.000,          384 
483047808.000, 483547856.000, 484047904.000,          391 
484047904.000, 484547968.000, 485048032.000,          409 
485048032.000, 485548080.000, 486048128.000,          421 
486048128.000, 486548176.000, 487048224.000,          434 
487048224.000, 487548272.000, 488048320.000,          447 
488048320.000, 488548368.000, 489048416.000,          462 
489048416.000, 489548464.000, 490048512.000,          479 
490048512.000, 490548560.000, 491048608.000,          486 
491048608.000, 491548656.000, 492048704.000,          509 
492048704.000, 492548752.000, 493048800.000,          520 
493048800.000, 493548848.000, 494048896.000,          537 
494048896.000, 494548960.000, 495049024.000,          553 
495049024.000, 495549072.000, 496049120.000,          562 
496049120.000, 496549168.000, 497049216.000,          588 
497049216.000, 497549264.000, 498049312.000,          596 
498049312.000, 498549360.000, 499049408.000,          621 
499049408.000, 499549456.000, 500049504.000,          627 
500049504.000, 500549552.000, 501049600.000,          646 
501049600.000, 501549648.000, 502049696.000,          670 
502049696.000, 502549744.000, 503049792.000,          678 
503049792.000, 503549840.000, 504049888.000,          701 
504049888.000, 504549936.000, 505049984.000,          715 
505049984.000, 505550048.000, 506050112.000,          740 
506050112.000, 506550160.000, 507050208.000,          748 
507050208.000, 507550256.000, 508050304.000,          774 
508050304.000, 508550352.000, 509050400.000,          781 
509050400.000, 509550448.000, 510050496.000,          814 
510050496.000, 510550544.000, 511050592.000,          813 
511050592.000, 511550640.000, 512050688.000,          854 
512050688.000, 512550736.000, 513050784.000,          847 
513050784.000, 513550832.000, 514050880.000,          889 
514050880.000, 514550928.000, 515050976.000,          883 
515050976.000, 515551040.000, 516051104.000,          925 
516051104.000, 516551152.000, 517051200.000,          915 
517051200.000, 517551248.000, 518051296.000,          963 
518051296.000, 518551344.000, 519051392.000,          957 
519051392.000, 519551440.000, 520051488.000,          989 
520051488.000, 520551536.000, 521051584.000,         1002 
521051584.000, 521551632.000, 522051680.000,         1018 
522051680.000, 522551728.000, 523051776.000,         1036 
523051776.000, 523551824.000, 524051872.000,         1055 
524051872.000, 524551920.000, 525051968.000,         1075 
525051968.000, 525552016.000, 526052064.000,         1087 
526052064.000, 526552128.000, 527052192.000,         1103 
527052192.000, 527552240.000, 528052288.000,         1128 
528052288.000, 528552336.000, 529052384.000,         1142 
529052384.000, 529552432.000, 530052480.000,         1159 
530052480.000, 530552528.000, 531052576.000,         1176 
531052576.000, 531552624.000, 532052672.000,         1188 
532052672.000, 532552720.000, 533052768.000,         1206 
533052768.000, 533552816.000, 534052864.000,         1223 
534052864.000, 534552912.000, 535052960.000,         1243 
535052960.000, 535553008.000, 536053056.000,         1254 
536053056.000, 536553120.000, 537053184.000,         1270 
537053184.000, 537553216.000, 538053248.000,         1281 
538053248.000, 538553312.000, 539053376.000,         1303 
539053376.000, 539553408.000, 540053440.000,         1316 
540053440.000, 540553504.000, 541053568.000,         1329 
541053568.000, 541553600.000, 542053632.000,         1347 
542053632.000, 542553696.000, 543053760.000,         1356 
543053760.000, 543553824.000, 544053888.000,         1368 
544053888.000, 544553920.000, 545053952.000,         1387 
545053952.000, 545554016.000, 546054080.000,         1398 
546054080.000, 546554112.000, 547054144.000,         1408 
547054144.000, 547554208.000, 548054272.000,         1426 
548054272.000, 548554304.000, 549054336.000,         1435 
549054336.000, 549554400.000, 550054464.000,         1442 
550054464.000, 550554496.000, 551054528.000,         1460 
551054528.000, 551554592.000, 552054656.000,         1468 
552054656.000, 552554688.000, 553054720.000,         1482 
553054720.000, 553554784.000, 554054848.000,         1488 
554054848.000, 554554912.000, 555054976.000,         1500 
555054976.000, 555555008.000, 556055040.000,         1508 
556055040.000, 556555104.000, 557055168.000,         1519 
557055168.000, 557555200.000, 558055232.000,         1528 
558055232.000, 558555296.000, 559055360.000,         1538 
559055360.000, 559555392.000, 560055424.000,         1541 
560055424.000, 560555488.000, 561055552.000,         1549 
561055552.000, 561555584.000, 562055616.000,         1560 
562055616.000, 562555680.000, 563055744.000,         1565 
563055744.000, 563555808.000, 564055872.000,         1570 
564055872.000, 564555904.000, 565055936.000,         1579 
565055936.000, 565556000.000, 566056064.000,         1584 
566056064.000, 566556096.000, 567056128.000,         1586 
567056128.000, 567556192.000, 568056256.000,         1590 
568056256.000, 568556288.000, 569056320.000,         1599 
569056320.000, 569556384.000, 570056448.000,         1598 
570056448.000, 570556480.000, 571056512.000,         1604 
571056512.000, 571556576.000, 572056640.000,         1608 
572056640.000, 572556672.000, 573056704.000,         1609 
573056704.000, 573556768.000, 574056832.000,         1609 
574056832.000, 574556896.000, 575056960.000,         1613 
575056960.000, 575556992.000, 576057024.000,         1613 
576057024.000, 576557088.000, 577057152.000,         1612 
577057152.000, 577557184.000, 578057216.000,         1616 
578057216.000, 578557280.000, 579057344.000,         1613 
579057344.000, 579557376.000, 580057408.000,         1611 
580057408.000, 580557472.000, 581057536.000,         1613 
581057536.000, 581557568.000, 582057600.000,         1608 
582057600.000, 582557664.000, 583057728.000,         1607 
583057728.000, 583557760.000, 584057792.000,         1605 
584057792.000, 584557856.000, 585057920.000,         1602 
585057920.000, 585557984.000, 586058048.000,         1598 
586058048.000, 586558080.000, 587058112.000,         1596 
587058112.000, 587558176.000, 588058240.000,         1591 
588058240.000, 588558272.000, 589058304.000,         1584 
589058304.000, 589558368.000, 590058432.000,         1578 
590058432.000, 590558464.000, 591058496.000,         1575 
591058496.000, 591558560.000, 592058624.000,         1570 
592058624.000, 592558656.000, 593058688.000,         1563 
593058688.000, 593558752.000, 594058816.000,         1555 
594058816.000, 594558848.000, 595058880.000,         1548 
595058880.000, 595558944.000, 596059008.000,         1540 
596059008.000, 596559072.000, 597059136.000,         1531 
597059136.000, 597559168.000, 598059200.000,         1525 
598059200.000, 598559264.000, 599059328.000,         1515 
599059328.000, 599559360.000, 600059392.000,         1505 
600059392.000, 600559456.000, 601059520.000,         1498 
601059520.000, 601559552.000, 602059584.000,         1485 
602059584.000, 602559648.000, 603059712.000,         1473 
603059712.000, 603559744.000, 604059776.000,         1466 
604059776.000, 604559840.000, 605059904.000,         1454 
605059904.000, 605559936.000, 606059968.000,         1439 
606059968.000, 606560032.000, 607060096.000,         1434 
607060096.000, 607560160.000, 608060224.000,         1414 
608060224.000, 608560256.000, 609060288.000,         1405 
609060288.000, 609560352.000, 610060416.000,         1392 
610060416.000, 610560448.000, 611060480.000,         1380 
611060480.000, 611560544.000, 612060608.000,         1365 
612060608.000, 612560640.000, 613060672.000,         1357 
613060672.000, 613560736.000, 614060800.000,         1336 
614060800.000, 614560832.000, 615060864.000,         1319 
615060864.000, 615560928.000, 616060992.000,         1311 
616060992.000, 616561024.000, 617061056.000,         1297 
617061056.000, 617561120.000, 618061184.000,         1276 
618061184.000, 618561248.000, 619061312.000,         1267 
619061312.000, 619561344.000, 620061376.000,         1247 
620061376.000, 620561440.000, 621061504.000,         1230 
621061504.000, 621561536.000, 622061568.000,         1221 
622061568.000, 622561632.000, 623061696.000,         1201 
623061696.000, 623561728.000, 624061760.000,         1183 
624061760.000, 624561824.000, 625061888.000,         1169 
625061888.000, 625561920.000, 626061952.000,         1144 
626061952.000, 626562016.000, 627062080.000,         1137 
627062080.000, 627562144.000, 628062208.000,         1120 
628062208.000, 628562240.000, 629062272.000,         1097 
629062272.000, 629562336.000, 630062400.000,         1081 
630062400.000, 630562432.000, 631062464.000,         1068 
631062464.000, 631562528.000, 632062592.000,         1046 
632062592.000, 632562624.000, 633062656.000,         1031 
633062656.000, 633562720.000, 634062784.000,         1017 
634062784.000, 634562816.000, 635062848.000,          989 
635062848.000, 635562912.000, 636062976.000,          976 
636062976.000, 636563008.000, 637063040.000,          969 
637063040.000, 637563104.000, 638063168.000,          934 
638063168.000, 638563232.000, 639063296.000,          926 
639063296.000, 639563328.000, 640063360.000,          902 
640063360.000, 640563424.000, 641063488.000,          888 
641063488.000, 641563520.000, 642063552.000,          870 
642063552.000, 642563616.000, 643063680.000,          852 
643063680.000, 643563712.000, 644063744.000,          833 
644063744.000, 644563808.000, 645063872.000,          812 
645063872.000, 645563904.000, 646063936.000,          804 
646063936.000, 646564000.000, 647064064.000,          771 
647064064.000, 647564096.000, 648064128.000,          772 
648064128.000, 648564192.000, 649064256.000,          726 
649064256.000, 649564320.000, 650064384.000,          747 
650064384.000, 650564416.000, 651064448.000,          687 
651064448.000, 651564512.000, 652064576.000,          717 
652064576.000, 652564608.000, 653064640.000,          657 
653064640.000, 653564704.000, 654064768.000,          675 
654064768.000, 654564800.000, 655064832.000,          635 
655064832.000, 655564896.000, 656064960.000,          630 
656064960.000, 656564992.000, 657065024.000,          608 
657065024.000, 657565088.000, 658065152.000,          594 
658065152.000, 658565184.000, 659065216.000,          575 
659065216.000, 659565280.000, 660065344.000,          560 
660065344.000, 660565408.000, 661065472.000,          547 
661065472.000, 661565504.000, 662065536.000,          527 
662065536.000, 662565600.000, 663065664.000,          517 
663065664.000, 663565696.000, 664065728.000,          496 
664065728.000, 664565792.000, 665065856.000,          489 
665065856.000, 665565888.000, 666065920.000,          471 
666065920.000, 666565984.000, 667066048.000,          456 
667066048.000, 667566080.000, 668066112.000,          441 
668066112.000, 668566176.000, 669066240.000,          427 
669066240.000, 669566272.000, 670066304.000,          416 
670066304.000, 670566368.000, 671066432.000,          398 
671066432.000, 671566496.000, 672066560.000,          393 
672066560.000, 672566592.000, 673066624.000,          376 
673066624.000, 673566688.000, 674066752.000,          366 
674066752.000, 674566784.000, 675066816.000,          353 
675066816.000, 675566880.000, 676066944.000,          346 
676066944.000, 676566976.000, 677067008.000,          328 
677067008.000, 677567072.000, 678067136.000,          322 
678067136.000, 678567168.000, 679067200.000,          311 
679067200.000, 679567264.000, 680067328.000,          298 
680067328.000, 680567392.000, 681067456.000,          290 
681067456.000, 681567488.000, 682067520.000,          282 
682067520.000, 682567584.000, 683067648.000,          276 
683067648.000, 683567680.000, 684067712.000,          259 
684067712.000, 684567776.000, 685067840.000,          260 
685067840.000, 685567872.000, 686067904.000,          242 
686067904.000, 686567968.000, 687068032.000,          248 
687068032.000, 687568064.000, 688068096.000,          237 
688068096.000, 688568160.000, 689068224.000,          222 
689068224.000, 689568256.000, 690068288.000,          231 
690068288.000, 690568352.000, 691068416.000,          208 
691068416.000, 691568480.000, 692068544.000,          218 
692068544.000, 692568576.000, 693068608.000,          210 
693068608.000, 693568672.000, 694068736.000,          199 
694068736.000, 694568768.000, 695068800.000,          205 
695068800.000, 695568864.000, 696068928.000,          187 
696068928.000, 696568960.000, 697068992.000,          201 
697068992.000, 697569056.000, 698069120.000,          193 
698069120.000, 698569152.000, 699069184.000,          185 
699069184.000, 699569248.000, 700069312.000,          190 
700069312.000, 700569344.000, 701069376.000,          187 
701069376.000, 701569440.000, 702069504.000,          187 
702069504.000, 702569568.000, 703069632.000,          188 
703069632.000, 703569664.000, 704069696.000,          187 
704069696.000, 704569760.000, 705069824.000,          187 
705069824.000, 705569856.000, 706069888.000,          186 
706069888.000, 706569952.000, 707070016.000,          190 
707070016.000, 707570048.000, 708070080.000,          198 
708070080.000, 708570144.000, 709070208.000,          189 
709070208.000, 709570240.000, 710070272.000,          199 
710070272.000, 710570336.000, 711070400.000,          203 
711070400.000, 711570432.000, 712070464.000,          203 
712070464.000, 712570528.000, 713070592.000,          214 
713070592.000, 713570656.000, 714070720.000,          210 
714070720.000, 714570752.000, 715070784.000,          223 
715070784.000, 715570848.000, 716070912.000,          223 
716070912.000, 716570944.000, 717070976.000,          231 
717070976.000, 717571040.000, 718071104.000,          246 
718071104.000, 718571136.000, 719071168.000,          236 
719071168.000, 719571232.000, 720071296.000,          255 
720071296.000, 720571328.000, 721071360.000,          260 
721071360.000, 721571424.000, 722071488.000,          267 
722071488.000, 722571520.000, 723071552.000,          279 
723071552.000, 723571616.000, 724071680.000,          282 
724071680.000, 724571744.000, 725071808.000,          294 
725071808.000, 725571840.000, 726071872.000,          306 
726071872.000, 726571936.000, 727072000.000,          314 
727072000.000, 727572032.000, 728072064.000,          325 
728072064.000, 728572128.000, 729072192.000,          337 
729072192.000, 729572224.000, 730072256.000,          348 
730072256.000, 730572320.000, 731072384.000,          359 
731072384.000, 731572416.000, 732072448.000,          371 
732072448.000, 732572512.000, 733072576.000,          382 
733072576.000, 733572608.000, 734072640.000,          395 
734072640.000, 734572704.000, 735072768.000,          410 
735072768.000, 735572832.000, 736072896.000,          415 
736072896.000, 736572928.000, 737072960.000,          438 
737072960.000, 737573024.000, 738073088.000,          445 
738073088.000, 738573120.000, 739073152.000,          462 
739073152.000, 739573216.000, 740073280.000,          478 
740073280.000, 740573312.000, 741073344.000,          491 
741073344.000, 741573408.000, 742073472.000,          507 
742073472.000, 742573504.000, 743073536.000,          519 
743073536.000, 743573600.000, 744073664.000,          538 
744073664.000, 744573728.000, 745073792.000,          549 
745073792.000, 745573824.000, 746073856.000,          570 
746073856.000, 746573920.000, 747073984.000,          581 
747073984.000, 747574016.000, 748074048.000,          604 
748074048.000, 748574112.000, 749074176.000,          617 
749074176.000, 749574208.000, 750074240.000,          629 
750074240.000, 750574304.000, 751074368.000,          647 
751074368.000, 751574400.000, 752074432.000,          669 
752074432.000, 752574496.000, 753074560.000,          678 
753074560.000, 753574592.000, 754074624.000,          704 
754074624.000, 754574688.000, 755074752.000,          714 
755074752.000, 755574816.000, 756074880.000,          742 
756074880.000, 756574912.000, 757074944.000,          746 
757074944.000, 757575008.000, 758075072.000,          776 
758075072.000, 758575104.000, 759075136.000,          782 
759075136.000, 759575200.000, 760075264.000,          815 
760075264.000, 760575296.000, 761075328.000,          813 
761075328.000, 761575392.000, 762075456.000,          853 
762075456.000, 762575488.000, 763075520.000,          848 
763075520.000, 763575584.000, 764075648.000,          889 
764075648.000, 764575680.000, 765075712.000,          883 
765075712.000, 765575776.000, 766075840.000,          924 
766075840.000, 766575904.000, 767075968.000,          907 
767075968.000, 767576000.000, 768076032.000,          955 
768076032.000, 768576096.000, 769076160.000,          953 
769076160.000, 769576192.000, 770076224.000,          984 
770076224.000, 770576288.000, 771076352.000,          997 
771076352.000, 771576384.000, 772076416.000,         1009 
772076416.000, 772576480.000, 773076544.000,         1030 
773076544.000, 773576576.000, 774076608.000,         1052 
774076608.000, 774576672.000, 775076736.000,         1064 
775076736.000, 775576768.000, 776076800.000,         1084 
776076800.000, 776576864.000, 777076928.000,         1103 
777076928.000, 777576992.000, 778077056.000,         1115 
778077056.000, 778577088.000, 779077120.000,         1133 
779077120.000, 779577184.000, 780077248.000,         1151 
780077248.000, 780577280.000, 781077312.000,         1172 
781077312.000, 781577376.000, 782077440.000,         1181 
782077440.000, 782577472.000, 783077504.000,         1198 
783077504.000, 783577568.000, 784077632.000,         1218 
784077632.000, 784577664.000, 785077696.000,         1230 
785077696.000, 785577760.000, 786077824.000,         1249 
786077824.000, 786577856.000, 787077888.000,         1264 
787077888.000, 787577952.000, 788078016.000,         1280 
788078016.000, 788578080.000, 789078144.000,         1289 
789078144.000, 789578176.000, 790078208.000,         1303 
790078208.000, 790578272.000, 791078336.000,         1325 
791078336.000, 791578368.000, 792078400.000,         1340 
792078400.000, 792578464.000, 793078528.000,         1347 
793078528.000, 793578560.000, 794078592.000,         1366 
794078592.000, 794578656.000, 795078720.000,         1376 
795078720.000, 795578752.000, 796078784.000,         1385 
796078784.000, 796578848.000, 797078912.000,         1404 
797078912.000, 797578976.000, 798079040.000,         1415 
798079040.000, 798579072.000, 799079104.000,         1427 
799079104.000, 799579168.000, 800079232.000,         1440 
800079232.000, 800579264.000, 801079296.000,         1451 
801079296.000, 801579360.000, 802079424.000,         1455 
802079424.000, 802579456.000, 803079488.000,         1473 
803079488.000, 803579552.000, 804079616.000,         1482 
804079616.000, 804579648.000, 805079680.000,         1492 
805079680.000, 805579744.000, 806079808.000,         1504 
806079808.000, 806579840.000, 807079872.000,         1509 
807079872.000, 807579936.000, 808080000.000,         1515 
808080000.000, 808580064.000, 809080128.000,         1529 
809080128.000, 809580160.000, 810080192.000,         1531 
810080192.000, 810580256.000, 811080320.000,         1545 
811080320.000, 811580352.000, 812080384.000,         1550 
812080384.000, 812580448.000, 813080512.000,         1554 
813080512.000, 813580544.000, 814080576.000,         1562 
814080576.000, 814580640.000, 815080704.000,         1568 
815080704.000, 815580736.000, 816080768.000,         1576 
816080768.000, 816580832.000, 817080896.000,         1581 
817080896.000, 817580928.000, 818080960.000,         1579 
818080960.000, 818581024.000, 819081088.000,         1587 
819081088.000, 819581152.000, 820081216.000,         1592 
820081216.000, 820581248.000, 821081280.000,         1593 
821081280.000, 821581344.000, 822081408.000,         1598 
822081408.000, 822581440.000, 823081472.000,         1603 
823081472.000, 823581536.000, 824081600.000,         1600 
824081600.000, 824581632.000, 825081664.000,         1602 
825081664.000, 825581728.000, 826081792.000,         1605 
826081792.000, 826581824.000, 827081856.000,         1605 
827081856.000, 827581920.000, 828081984.000,         1603 
828081984.000, 828582016.000, 829082048.000,         1606 
829082048.000, 829582112.000, 830082176.000,         1605 
830082176.000, 830582240.000, 831082304.000,         1601 
831082304.000, 831582336.000, 832082368.000,         1602 
832082368.000, 832582432.000, 833082496.000,         1599 
833082496.000, 833582528.000, 834082560.000,         1594 
834082560.000, 834582624.000, 835082688.000,         1594 
835082688.000, 835582720.000, 836082752.000,         1591 
836082752.000, 836582816.000, 837082880.000,         1584 
837082880.000, 837582912.000, 838082944.000,         1584 
838082944.000, 838583008.000, 839083072.000,         1577 
839083072.000, 839583104.000, 840083136.000,         1573 
840083136.000, 840583200.000, 841083264.000,         1563 
841083264.000, 841583328.000, 842083392.000,         1563 
842083392.000, 842583424.000, 843083456.000,         1552 
843083456.000, 843583520.000, 844083584.000,         1544 
844083584.000, 844583616.000, 845083648.000,         1543 
845083648.000, 845583712.000, 846083776.000,         1534 
846083776.000, 846583808.000, 847083840.000,         1520 
847083840.000, 847583904.000, 848083968.000,         1516 
848083968.000, 848584000.000, 849084032.000,         1503 
849084032.000, 849584096.000, 850084160.000,         1498 
850084160.000, 850584192.000, 851084224.000,         1492 
851084224.000, 851584288.000, 852084352.000,         1477 
852084352.000, 852584416.000, 853084480.000,         1467 
853084480.000, 853584512.000, 854084544.000,         1458 
854084544.000, 854584608.000, 855084672.000,         1441 
855084672.000, 855584704.000, 856084736.000,         1435 
856084736.000, 856584800.000, 857084864.000,         1427 
857084864.000, 857584896.000, 858084928.000,         1408 
858084928.000, 858584992.000, 859085056.000,         1396 
859085056.000, 859585088.000, 860085120.000,         1387 
860085120.000, 860585184.000, 861085248.000,         1369 
861085248.000, 861585312.000, 862085376.000,         1361 
862085376.000, 862585408.000, 863085440.000,         1345 
863085440.000, 863585504.000, 864085568.000,         1329 
864085568.000, 864585600.000, 865085632.000,         1318 
865085632.000, 865585696.000, 866085760.000,         1304 
866085760.000, 866585792.000, 867085824.000,         1284 
867085824.000, 867585888.000, 868085952.000,         1275 
868085952.000, 868585984.000, 869086016.000,         1258 
869086016.000, 869586080.000, 870086144.000,         1241 
870086144.000, 870586176.000, 871086208.000,         1228 
871086208.000, 871586272.000, 872086336.000,         1206 
872086336.000, 872586400.000, 873086464.000,         1195 
873086464.000, 873586496.000, 874086528.000,         1182 
874086528.000, 874586592.000, 875086656.000,         1162 
875086656.000, 875586688.000, 876086720.000,         1143 
876086720.000, 876586784.000, 877086848.000,         1127 
877086848.000, 877586880.000, 878086912.000,         1110 
878086912.000, 878586976.000, 879087040.000,         1095 
879087040.000, 879587072.000, 880087104.000,         1075 
880087104.000, 880587168.000, 881087232.000,         1063 
881087232.000, 881587264.000, 882087296.000,         1037 
882087296.000, 882587360.000, 883087424.000,         1027 
883087424.000, 883587488.000, 884087552.000,         1012 
884087552.000, 884587584.000, 885087616.000,          988 
885087616.000, 885587680.000, 886087744.000,          968 
886087744.000, 886587776.000, 887087808.000,          963 
887087808.000, 887587872.000, 888087936.000,          929 
888087936.000, 888587968.000, 889088000.000,          922 
889088000.000, 889588064.000, 890088128.000,          899 
890088128.000, 890588160.000, 891088192.000,          883 
891088192.000, 891588256.000, 892088320.000,          865 
892088320.000, 892588352.000, 893088384.000,          846 
893088384.000, 893588448.000, 894088512.000,          833 
894088512.000, 894588576.000, 895088640.000,          806 
895088640.000, 895588672.000, 896088704.000,          799 
896088704.000, 896588768.000, 897088832.000,          767 
897088832.000, 897588864.000, 898088896.000,          769 
898088896.000, 898588960.000, 899089024.000,          724 
899089024.000, 899589056.000, 900089088.000,          743 
900089088.000, 900589152.000, 901089216.000,          681 
901089216.000, 901589248.000, 902089280.000,          714 
902089280.000, 902589344.000, 903089408.000,          655 
903089408.000, 903589440.000, 904089472.000,          671 
904089472.000, 904589536.000, 905089600.000,          633 
905089600.000, 905589664.000, 906089728.000,          626 
906089728.000, 906589760.000, 907089792.000,          607 
907089792.000, 907589856.000, 908089920.000,          588 
908089920.000, 908589952.000, 909089984.000,          573 
909089984.000, 909590048.000, 910090112.000,          559 
910090112.000, 910590144.000, 911090176.000,          538 
911090176.000, 911590240.000, 912090304.000,          529 
912090304.000, 912590336.000, 913090368.000,          513 
913090368.000, 913590432.000, 914090496.000,          493 
914090496.000, 914590560.000, 915090624.000,          486 
915090624.000, 915590656.000, 916090688.000,          468 
916090688.000, 916590752.000, 917090816.000,          457 
917090816.000, 917590848.000, 918090880.000,          436 
918090880.000, 918590944.000, 919091008.000,          429 
919091008.000, 919591040.000, 920091072.000,          413 
920091072.000, 920591136.000, 921091200.000,          401 
921091200.000, 921591232.000, 922091264.000,          387 
922091264.000, 922591328.000, 923091392.000,          372 
923091392.000, 923591424.000, 924091456.000,          365 
924091456.000, 924591520.000, 925091584.000,          352 
925091584.000, 925591648.000, 926091712.000,          338 
926091712.000, 926591744.000, 927091776.000,          333 
927091776.000, 927591840.000, 928091904.000,          318 
928091904.000, 928591936.000, 929091968.000,          309 
929091968.000, 929592032.000, 930092096.000,          299 
930092096.000, 930592128.000, 931092160.000,          287 
931092160.000, 931592224.000, 932092288.000,          283 
932092288.000, 932592320.000, 933092352.000,          265 
933092352.000, 933592416.000, 934092480.000,          270 
934092480.000, 934592512.000, 935092544.000,          254 
935092544.000, 935592608.000, 936092672.000,          246 
936092672.000, 936592736.000, 937092800.000,          245 
937092800.000, 937592832.000, 938092864.000,          223 
938092864.000, 938592928.000, 939092992.000,          234 
939092992.000, 939593024.000, 940093056.000,          224 
940093056.000, 940593120.000, 941093184.000,          214 
941093184.000, 941593216.000, 942093248.000,          214 
942093248.000, 942593312.000, 943093376.000,          198 
943093376.000, 943593408.000, 944093440.000,          210 
944093440.000, 944593504.000, 945093568.000,          198 
945093568.000, 945593600.000, 946093632.000,          192 
946093632.000, 946593696.000, 947093760.000,          199 
947093760.000, 947593824.000, 948093888.000,          184 
948093888.000, 948593920.000, 949093952.000,          194 
949093952.000, 949594016.000, 950094080.000,          185 
950094080.000, 950594112.000, 951094144.000,          187 
951094144.000, 951594208.000, 952094272.000,          185 
952094272.000, 952594304.000, 953094336.000,          183 
953094336.000, 953594400.000, 954094464.000,          185 
954094464.000, 954594496.000, 955094528.000,          188 
955094528.000, 955594592.000, 956094656.000,          185 
956094656.000, 956594688.000, 957094720.000,          193 
957094720.000, 957594784.000, 958094848.000,          189 
958094848.000, 958594912.000, 959094976.000,          193 
959094976.000, 959595008.000, 960095040.000,          203 
960095040.000, 960595104.000, 961095168.000,          193 
961095168.000, 961595200.000, 962095232.000,          209 
962095232.000, 962595296.000, 963095360.000,          204 
963095360.000, 963595392.000, 964095424.000,          213 
964095424.000, 964595488.000, 965095552.000,          225 
965095552.000, 965595584.000, 966095616.000,          216 
966095616.000, 966595680.000, 967095744.000,          235 
967095744.000, 967595776.000, 968095808.000,          234 
968095808.000, 968595872.000, 969095936.000,          244 
969095936.000, 969596000.000, 970096064.000,          258 
970096064.000, 970596096.000, 971096128.000,          248 
971096128.000, 971596192.000, 972096256.000,          271 
972096256.000, 972596288.000, 973096320.000,          272 
973096320.000, 973596384.000, 974096448.000,          284 
974096448.000, 974596480.000, 975096512.000,          295 
975096512.000, 975596576.000, 976096640.000,          301 
976096640.000, 976596672.000, 977096704.000,          312 
977096704.000, 977596768.000, 978096832.000,          325 
978096832.000, 978596896.000, 979096960.000,          331 
979096960.000, 979596992.000, 980097024.000,          345 
980097024.000, 980597088.000, 981097152.000,          355 
981097152.000, 981597184.000, 982097216.000,          370 
982097216.000, 982597280.000, 983097344.000,          379 
983097344.000, 983597376.000, 984097408.000,          396 
984097408.000, 984597472.000, 985097536.000,          404 
985097536.000, 985597568.000, 986097600.000,          420 
986097600.000, 986597664.000, 987097728.000,          428 
987097728.000, 987597760.000, 988097792.000,          445 
988097792.000, 988597856.000, 989097920.000,          462 
989097920.000, 989597984.000, 990098048.000,          471 
990098048.000, 990598080.000, 991098112.000,          489 
991098112.000, 991598176.000, 992098240.000,          502 
992098240.000, 992598272.000, 993098304.000,          518 
993098304.000, 993598368.000, 994098432.000,          532 
994098432.000, 994598464.000, 995098496.000,          548 
995098496.000, 995598560.000, 996098624.000,          565 
996098624.000, 996598656.000, 997098688.000,          578 
997098688.000, 997598752.000, 998098816.000,          596 
998098816.000, 998598848.000, 999098880.000,          616 
999098880.000, 999598944.000, 1000099008.000,          623 
